Data from FLMT043001_09-36-28-256.txt Node
Date: Wed Sep 13 09:36:28 AWST 2023
User: vk1team
Spectrometer: FLMT04300
Trigger mode: 0
Integration Time (sec): 1.000000E-1
Scans to average: 1
Electric dark correction enabled: true
Nonlinearity correction enabled: false
Boxcar width: 0
XAxis mode: Wavelengths
Number of Pixels in Spectrum: 3648
>>>>>Begin Spectral Data<<<<<
195.236	-79.33
195.457	-79.33
195.678	-79.33
195.899	-114.66
196.119	70.8
196.34	12.51
196.561	-8.68
196.782	-59.9
197.002	-28.11
197.223	67.26
197.444	28.41
197.664	10.74
197.885	-47.54
198.106	-31.64
198.326	-40.48
198.547	53.13
198.768	44.3
198.988	16.04
199.209	-8.68
199.429	-15.75
199.65	-29.88
199.871	19.58
200.091	-58.14
200.312	127.31
200.532	-49.31
200.753	53.13
200.973	-24.58
201.194	84.92
201.414	120.25
201.635	10.74
201.855	-36.94
202.076	-5.15
202.296	3.68
202.516	-81.1
202.737	12.51
202.957	3.68
203.178	40.77
203.398	-22.81
203.618	47.83
203.839	63.73
204.059	-12.22
204.279	-17.51
204.5	-38.71
204.72	49.6
204.94	14.28
205.16	47.83
205.381	40.77
205.601	-33.41
205.821	144.98
206.041	42.54
206.262	3.68
206.482	-28.11
206.702	61.96
206.922	-75.8
207.142	42.54
207.362	86.69
207.583	10.74
207.803	49.6
208.023	-5.15
208.243	49.6
208.463	-54.61
208.683	-15.75
208.903	39
209.123	-40.48
209.343	-31.64
209.563	8.98
209.783	-31.64
210.003	1.91
210.223	-29.88
210.443	44.3
210.663	-47.54
210.883	69.03
211.103	-58.14
211.323	-3.39
211.543	61.96
211.763	-8.68
211.983	7.21
212.202	-10.45
212.422	5.45
212.642	35.47
212.862	63.73
213.082	-3.39
213.302	58.43
213.521	3.68
213.741	-31.64
213.961	84.92
214.181	30.17
214.4	125.55
214.62	69.03
214.84	118.48
215.06	67.26
215.279	-22.81
215.499	49.6
215.719	-35.18
215.938	39
216.158	5.45
216.377	-21.05
216.597	77.86
216.817	-45.77
217.036	-26.35
217.256	14.28
217.475	-21.05
217.695	74.33
217.914	8.98
218.134	-40.48
218.354	-17.51
218.573	-13.98
218.793	58.43
219.012	19.58
219.231	58.43
219.451	12.51
219.67	3.68
219.89	44.3
220.109	63.73
220.329	-29.88
220.548	17.81
220.767	-40.48
220.987	-36.94
221.206	-13.98
221.425	53.13
221.645	44.3
221.864	23.11
222.083	-56.37
222.303	-24.58
222.522	97.29
222.741	-5.15
222.96	86.69
223.18	42.54
223.399	44.3
223.618	70.8
223.837	1.91
224.056	-12.22
224.276	3.68
224.495	1.91
224.714	77.86
224.933	-8.68
225.152	107.89
225.371	54.9
225.59	8.98
225.809	84.92
226.028	-52.84
226.248	-29.88
226.467	-3.39
226.686	58.43
226.905	31.94
227.124	47.83
227.343	-10.45
227.562	107.89
227.781	26.64
228	90.22
228.218	-28.11
228.437	58.43
228.656	-12.22
228.875	70.8
229.094	-116.42
229.313	21.34
229.532	58.43
229.751	100.82
229.97	14.28
230.188	-15.75
230.407	3.68
230.626	58.43
230.845	1.91
231.064	31.94
231.282	3.68
231.501	-51.07
231.72	30.17
231.939	51.37
232.157	33.71
232.376	167.94
232.595	-35.18
232.813	44.3
233.032	-54.61
233.251	10.74
233.469	39
233.688	7.21
233.907	5.45
234.125	72.56
234.344	65.5
234.562	118.48
234.781	28.41
234.999	46.07
235.218	-86.4
235.436	8.98
235.655	-17.51
235.873	49.6
236.092	5.45
236.31	10.74
236.529	90.22
236.747	47.83
236.966	63.73
237.184	-59.9
237.403	51.37
237.621	81.39
237.839	39
238.058	24.87
238.276	19.58
238.494	-89.93
238.713	8.98
238.931	-15.75
239.149	16.04
239.368	-42.24
239.586	65.5
239.804	111.42
240.022	-35.18
240.241	-5.15
240.459	21.34
240.677	-15.75
240.895	39
241.113	-6.92
241.332	33.71
241.55	7.21
241.768	-17.51
241.986	30.17
242.204	60.2
242.422	-17.51
242.64	56.67
242.859	-1.62
243.077	-61.67
243.295	12.51
243.513	12.51
243.731	7.21
243.949	-6.92
244.167	-5.15
244.385	-31.64
244.603	-59.9
244.821	49.6
245.039	14.28
245.257	40.77
245.475	33.71
245.692	-44.01
245.91	49.6
246.128	7.21
246.346	-45.77
246.564	60.2
246.782	24.87
247	46.07
247.218	21.34
247.435	86.69
247.653	-19.28
247.871	111.42
248.089	-36.94
248.306	-6.92
248.524	-19.28
248.742	47.83
248.96	3.68
249.177	24.87
249.395	95.52
249.613	23.11
249.83	-24.58
250.048	-19.28
250.266	12.51
250.483	12.51
250.701	5.45
250.919	-15.75
251.136	37.24
251.354	31.94
251.571	60.2
251.789	-28.11
252.006	67.26
252.224	26.64
252.441	-15.75
252.659	26.64
252.876	10.74
253.094	-26.35
253.311	67.26
253.529	-49.31
253.746	24.87
253.964	-15.75
254.181	79.63
254.399	-15.75
254.616	-6.92
254.833	19.58
255.051	67.26
255.268	-75.8
255.485	-10.45
255.703	42.54
255.92	17.81
256.137	16.04
256.355	8.98
256.572	-54.61
256.789	35.47
257.006	86.69
257.224	-15.75
257.441	65.5
257.658	-40.48
257.875	-38.71
258.092	72.56
258.31	46.07
258.527	5.45
258.744	79.63
258.961	-104.06
259.178	86.69
259.395	-93.46
259.612	53.13
259.829	65.5
260.046	-19.28
260.263	1.91
260.48	60.2
260.698	47.83
260.915	47.83
261.132	-33.41
261.349	-1.62
261.565	-47.54
261.782	42.54
261.999	-31.64
262.216	-33.41
262.433	21.34
262.65	8.98
262.867	28.41
263.084	-79.33
263.301	1.91
263.518	106.12
263.734	26.64
263.951	24.87
264.168	39
264.385	76.09
264.602	42.54
264.818	31.94
265.035	5.45
265.252	26.64
265.469	31.94
265.685	67.26
265.902	61.96
266.119	-13.98
266.336	24.87
266.552	65.5
266.769	23.11
266.986	-21.05
267.202	77.86
267.419	19.58
267.635	37.24
267.852	40.77
268.069	14.28
268.285	-70.5
268.502	0.15
268.718	97.29
268.935	-17.51
269.151	-49.31
269.368	3.68
269.584	63.73
269.801	77.86
270.017	76.09
270.234	-63.44
270.45	65.5
270.666	0.15
270.883	-3.39
271.099	42.54
271.316	39
271.532	8.98
271.748	-52.84
271.965	164.4
272.181	-66.97
272.397	-19.28
272.614	5.45
272.83	-8.68
273.046	1.91
273.263	40.77
273.479	19.58
273.695	-66.97
273.911	-13.98
274.127	93.76
274.344	46.07
274.56	-49.31
274.776	37.24
274.992	28.41
275.208	23.11
275.424	-1.62
275.641	53.13
275.857	79.63
276.073	60.2
276.289	61.96
276.505	46.07
276.721	76.09
276.937	69.03
277.153	-36.94
277.369	53.13
277.585	37.24
277.801	42.54
278.017	-35.18
278.233	56.67
278.449	-1.62
278.665	-51.07
278.881	31.94
279.097	7.21
279.313	-49.31
279.528	14.28
279.744	67.26
279.96	122.02
280.176	17.81
280.392	74.33
280.608	0.15
280.823	72.56
281.039	58.43
281.255	-1.62
281.471	65.5
281.687	14.28
281.902	30.17
282.118	51.37
282.334	144.98
282.549	33.71
282.765	39
282.981	23.11
283.196	104.35
283.412	-1.62
283.628	74.33
283.843	-15.75
284.059	104.35
284.274	67.26
284.49	46.07
284.706	100.82
284.921	24.87
285.137	77.86
285.352	44.3
285.568	47.83
285.783	26.64
285.999	12.51
286.214	99.05
286.43	23.11
286.645	3.68
286.861	-28.11
287.076	3.68
287.291	46.07
287.507	125.55
287.722	26.64
287.938	113.18
288.153	58.43
288.368	12.51
288.584	-63.44
288.799	134.38
289.014	56.67
289.229	86.69
289.445	46.07
289.66	91.99
289.875	102.59
290.09	21.34
290.306	8.98
290.521	5.45
290.736	102.59
290.951	-1.62
291.166	60.2
291.382	136.14
291.597	-13.98
291.812	69.03
292.027	42.54
292.242	83.16
292.457	72.56
292.672	3.68
292.887	102.59
293.102	-70.5
293.317	28.41
293.532	72.56
293.747	-1.62
293.962	30.17
294.177	-31.64
294.392	91.99
294.607	76.09
294.822	67.26
295.037	-19.28
295.252	107.89
295.467	81.39
295.682	67.26
295.897	37.24
296.112	118.48
296.326	160.87
296.541	-12.22
296.756	86.69
296.971	19.58
297.186	39
297.4	60.2
297.615	129.08
297.83	65.5
298.045	39
298.259	125.55
298.474	61.96
298.689	-12.22
298.903	76.09
299.118	19.58
299.333	17.81
299.547	84.92
299.762	114.95
299.977	-31.64
300.191	91.99
300.406	104.35
300.62	84.92
300.835	93.76
301.05	107.89
301.264	21.34
301.479	109.65
301.693	91.99
301.908	61.96
302.122	26.64
302.337	53.13
302.551	76.09
302.766	70.8
302.98	187.36
303.194	67.26
303.409	5.45
303.623	63.73
303.838	106.12
304.052	175
304.266	90.22
304.481	123.78
304.695	134.38
304.909	141.44
305.124	250.95
305.338	491.15
305.552	899.15
305.766	1084.6
305.981	1342.46
306.195	1383.08
306.409	1330.1
306.623	1157.01
306.837	1231.19
307.052	1494.36
307.266	1709.83
307.48	1877.62
307.694	1971.23
307.908	2177.88
308.122	2520.52
308.336	2702.44
308.55	2483.43
308.764	2183.18
308.979	2040.11
309.193	1826.4
309.407	1722.2
309.621	1517.32
309.835	1427.24
310.049	1430.77
310.263	1217.06
310.477	1229.43
310.69	1162.31
310.904	1049.27
311.118	1107.56
311.332	1178.21
311.546	992.75
311.76	1079.3
311.974	987.46
312.188	957.43
312.402	915.04
312.615	1019.25
312.829	953.9
313.043	809.07
313.257	923.87
313.471	874.42
313.684	955.66
313.898	862.05
314.112	860.29
314.325	812.6
314.539	872.65
314.753	842.63
314.967	809.07
315.18	692.5
315.394	749.02
315.607	634.21
315.821	627.15
316.035	708.39
316.248	614.79
316.462	522.94
316.675	522.94
316.889	544.14
317.103	489.39
317.316	526.48
317.53	462.89
317.743	416.97
317.957	427.57
318.17	401.08
318.384	415.21
318.597	415.21
318.81	360.45
319.024	326.89
319.237	392.24
319.451	434.63
319.664	321.6
319.877	335.73
320.091	411.67
320.304	312.77
320.517	337.49
320.731	291.57
320.944	196.2
321.157	337.49
321.371	319.83
321.584	261.55
321.797	242.12
322.01	236.82
322.223	222.69
322.437	206.79
322.65	282.74
322.863	199.73
323.076	175
323.289	213.86
323.502	203.26
323.716	130.85
323.929	227.99
324.142	74.33
324.355	139.68
324.568	176.77
324.781	132.61
324.994	118.48
325.207	178.53
325.42	99.05
325.633	137.91
325.846	99.05
326.059	106.12
326.272	139.68
326.485	67.26
326.698	118.48
326.911	102.59
327.124	162.64
327.336	24.87
327.549	118.48
327.762	95.52
327.975	72.56
328.188	144.98
328.401	72.56
328.613	169.7
328.826	58.43
329.039	72.56
329.252	58.43
329.465	93.76
329.677	120.25
329.89	44.3
330.103	76.09
330.315	93.76
330.528	93.76
330.741	70.8
330.953	58.43
331.166	109.65
331.379	54.9
331.591	79.63
331.804	130.85
332.017	150.27
332.229	37.24
332.442	102.59
332.654	47.83
332.867	-26.35
333.079	61.96
333.292	79.63
333.504	33.71
333.717	141.44
333.929	51.37
334.142	77.86
334.354	114.95
334.566	0.15
334.779	81.39
334.991	122.02
335.204	141.44
335.416	104.35
335.628	42.54
335.841	97.29
336.053	54.9
336.265	106.12
336.478	-49.31
336.69	88.46
336.902	21.34
337.114	127.31
337.327	53.13
337.539	56.67
337.751	79.63
337.963	-3.39
338.176	39
338.388	61.96
338.6	21.34
338.812	19.58
339.024	107.89
339.236	23.11
339.448	-10.45
339.66	42.54
339.873	84.92
340.085	72.56
340.297	122.02
340.509	111.42
340.721	21.34
340.933	183.83
341.145	5.45
341.357	86.69
341.569	28.41
341.781	91.99
341.993	56.67
342.204	113.18
342.416	37.24
342.628	91.99
342.84	31.94
343.052	88.46
343.264	53.13
343.476	30.17
343.688	60.2
343.899	30.17
344.111	79.63
344.323	1.91
344.535	122.02
344.746	61.96
344.958	72.56
345.17	118.48
345.382	79.63
345.593	30.17
345.805	113.18
346.017	114.95
346.228	84.92
346.44	160.87
346.652	129.08
346.863	113.18
347.075	16.04
347.286	134.38
347.498	-10.45
347.71	61.96
347.921	123.78
348.133	90.22
348.344	113.18
348.556	132.61
348.767	113.18
348.979	97.29
349.19	155.57
349.402	67.26
349.613	99.05
349.825	173.24
350.036	53.13
350.247	21.34
350.459	69.03
350.67	113.18
350.881	37.24
351.093	104.35
351.304	28.41
351.515	113.18
351.727	116.72
351.938	72.56
352.149	3.68
352.361	39
352.572	95.52
352.783	93.76
352.994	90.22
353.205	107.89
353.417	33.71
353.628	160.87
353.839	83.16
354.05	39
354.261	26.64
354.472	46.07
354.683	56.67
354.895	42.54
355.106	30.17
355.317	81.39
355.528	23.11
355.739	148.51
355.95	-35.18
356.161	86.69
356.372	8.98
356.583	44.3
356.794	67.26
357.005	56.67
357.216	90.22
357.427	47.83
357.638	129.08
357.848	12.51
358.059	53.13
358.27	99.05
358.481	130.85
358.692	164.4
358.903	56.67
359.114	79.63
359.324	46.07
359.535	33.71
359.746	26.64
359.957	95.52
360.167	44.3
360.378	51.37
360.589	39
360.8	91.99
361.01	37.24
361.221	79.63
361.432	90.22
361.642	51.37
361.853	109.65
362.063	65.5
362.274	8.98
362.485	91.99
362.695	72.56
362.906	72.56
363.116	44.3
363.327	47.83
363.537	-6.92
363.748	153.81
363.958	69.03
364.169	26.64
364.379	116.72
364.59	-63.44
364.8	95.52
365.011	102.59
365.221	70.8
365.431	79.63
365.642	84.92
365.852	132.61
366.063	83.16
366.273	-28.11
366.483	90.22
366.694	102.59
366.904	56.67
367.114	109.65
367.324	106.12
367.535	70.8
367.745	30.17
367.955	46.07
368.165	79.63
368.375	81.39
368.586	84.92
368.796	-1.62
369.006	-5.15
369.216	69.03
369.426	86.69
369.636	106.12
369.846	-6.92
370.057	104.35
370.267	152.04
370.477	54.9
370.687	88.46
370.897	21.34
371.107	21.34
371.317	93.76
371.527	56.67
371.737	65.5
371.947	24.87
372.157	84.92
372.367	104.35
372.576	95.52
372.786	1.91
372.996	104.35
373.206	74.33
373.416	88.46
373.626	111.42
373.836	26.64
374.045	17.81
374.255	100.82
374.465	125.55
374.675	67.26
374.885	116.72
375.094	47.83
375.304	86.69
375.514	46.07
375.724	90.22
375.933	61.96
376.143	91.99
376.353	23.11
376.562	132.61
376.772	113.18
376.981	-10.45
377.191	127.31
377.401	65.5
377.61	56.67
377.82	35.47
378.029	47.83
378.239	99.05
378.448	93.76
378.658	120.25
378.867	60.2
379.077	56.67
379.286	113.18
379.496	33.71
379.705	70.8
379.915	69.03
380.124	14.28
380.333	-6.92
380.543	-3.39
380.752	74.33
380.962	116.72
381.171	42.54
381.38	84.92
381.589	90.22
381.799	26.64
382.008	8.98
382.217	95.52
382.427	28.41
382.636	137.91
382.845	35.47
383.054	114.95
383.263	90.22
383.473	102.59
383.682	37.24
383.891	63.73
384.1	122.02
384.309	49.6
384.518	26.64
384.727	54.9
384.936	77.86
385.146	72.56
385.355	116.72
385.564	17.81
385.773	-3.39
385.982	24.87
386.191	79.63
386.4	146.74
386.609	23.11
386.818	114.95
387.027	76.09
387.235	83.16
387.444	53.13
387.653	16.04
387.862	93.76
388.071	24.87
388.28	-42.24
388.489	97.29
388.698	90.22
388.906	72.56
389.115	104.35
389.324	102.59
389.533	28.41
389.741	123.78
389.95	23.11
390.159	31.94
390.368	-44.01
390.576	113.18
390.785	47.83
390.994	51.37
391.202	97.29
391.411	77.86
391.62	63.73
391.828	173.24
392.037	26.64
392.245	3.68
392.454	67.26
392.662	21.34
392.871	1.91
393.08	60.2
393.288	-5.15
393.497	164.4
393.705	77.86
393.913	8.98
394.122	79.63
394.33	86.69
394.539	19.58
394.747	116.72
394.956	-40.48
395.164	122.02
395.372	65.5
395.581	144.98
395.789	125.55
395.997	69.03
396.206	65.5
396.414	86.69
396.622	26.64
396.831	116.72
397.039	35.47
397.247	61.96
397.455	76.09
397.663	-6.92
397.872	-12.22
398.08	127.31
398.288	39
398.496	63.73
398.704	70.8
398.912	1.91
399.121	31.94
399.329	97.29
399.537	28.41
399.745	95.52
399.953	125.55
400.161	97.29
400.369	95.52
400.577	31.94
400.785	76.09
400.993	10.74
401.201	63.73
401.409	83.16
401.617	65.5
401.825	63.73
402.033	8.98
402.24	63.73
402.448	67.26
402.656	76.09
402.864	39
403.072	122.02
403.28	127.31
403.487	61.96
403.695	123.78
403.903	76.09
404.111	58.43
404.319	91.99
404.526	63.73
404.734	61.96
404.942	7.21
405.149	-19.28
405.357	0.15
405.565	127.31
405.772	39
405.98	21.34
406.188	83.16
406.395	49.6
406.603	60.2
406.81	51.37
407.018	53.13
407.226	95.52
407.433	46.07
407.641	69.03
407.848	40.77
408.056	79.63
408.263	47.83
408.471	69.03
408.678	60.2
408.885	81.39
409.093	153.81
409.3	187.36
409.508	162.64
409.715	206.79
409.922	111.42
410.13	148.51
410.337	90.22
410.544	84.92
410.752	54.9
410.959	81.39
411.166	137.91
411.373	-31.64
411.581	53.13
411.788	49.6
411.995	40.77
412.202	51.37
412.41	114.95
412.617	-15.75
412.824	21.34
413.031	169.7
413.238	26.64
413.445	23.11
413.652	127.31
413.859	42.54
414.067	-17.51
414.274	-3.39
414.481	-12.22
414.688	70.8
414.895	95.52
415.102	47.83
415.309	54.9
415.516	79.63
415.723	60.2
415.929	114.95
416.136	0.15
416.343	39
416.55	37.24
416.757	54.9
416.964	23.11
417.171	120.25
417.378	-12.22
417.584	100.82
417.791	49.6
417.998	16.04
418.205	14.28
418.412	5.45
418.618	61.96
418.825	67.26
419.032	-12.22
419.239	17.81
419.445	49.6
419.652	3.68
419.859	12.51
420.065	47.83
420.272	93.76
420.478	39
420.685	8.98
420.892	84.92
421.098	56.67
421.305	-1.62
421.511	33.71
421.718	86.69
421.924	-3.39
422.131	70.8
422.337	14.28
422.544	42.54
422.75	51.37
422.957	54.9
423.163	-3.39
423.37	102.59
423.576	46.07
423.782	51.37
423.989	31.94
424.195	5.45
424.401	-19.28
424.608	26.64
424.814	111.42
425.02	-5.15
425.227	60.2
425.433	51.37
425.639	-109.36
425.845	3.68
426.052	90.22
426.258	30.17
426.464	72.56
426.67	83.16
426.876	23.11
427.083	-38.71
427.289	1.91
427.495	76.09
427.701	46.07
427.907	47.83
428.113	23.11
428.319	26.64
428.525	63.73
428.731	79.63
428.937	7.21
429.143	58.43
429.349	49.6
429.555	49.6
429.761	-40.48
429.967	74.33
430.173	90.22
430.379	35.47
430.585	-24.58
430.791	-72.27
430.997	-22.81
431.203	106.12
431.408	-6.92
431.614	12.51
431.82	81.39
432.026	24.87
432.232	28.41
432.437	123.78
432.643	194.43
432.849	489.39
433.055	803.77
433.26	741.95
433.466	669.54
433.672	517.64
433.877	418.74
434.083	395.78
434.289	339.26
434.494	349.86
434.7	295.1
434.906	305.7
435.111	268.61
435.317	205.03
435.522	238.58
435.728	123.78
435.933	153.81
436.139	91.99
436.344	60.2
436.55	74.33
436.755	61.96
436.961	35.47
437.166	49.6
437.372	-12.22
437.577	44.3
437.782	123.78
437.988	3.68
438.193	95.52
438.398	58.43
438.604	104.35
438.809	1.91
439.014	69.03
439.22	104.35
439.425	16.04
439.63	95.52
439.835	26.64
440.041	53.13
440.246	3.68
440.451	-8.68
440.656	83.16
440.861	28.41
441.067	143.21
441.272	97.29
441.477	31.94
441.682	109.65
441.887	60.2
442.092	23.11
442.297	31.94
442.502	76.09
442.707	69.03
442.912	-36.94
443.117	30.17
443.322	19.58
443.527	17.81
443.732	14.28
443.937	49.6
444.142	23.11
444.347	35.47
444.552	19.58
444.757	28.41
444.962	42.54
445.166	65.5
445.371	46.07
445.576	17.81
445.781	21.34
445.986	46.07
446.191	26.64
446.395	150.27
446.6	-44.01
446.805	91.99
447.01	72.56
447.214	74.33
447.419	23.11
447.624	31.94
447.828	0.15
448.033	-61.67
448.238	86.69
448.442	12.51
448.647	146.74
448.851	0.15
449.056	5.45
449.261	72.56
449.465	0.15
449.67	74.33
449.874	46.07
450.079	116.72
450.283	23.11
450.488	-13.98
450.692	-12.22
450.896	58.43
451.101	-12.22
451.305	40.77
451.51	7.21
451.714	30.17
451.918	86.69
452.123	111.42
452.327	46.07
452.531	28.41
452.736	26.64
452.94	5.45
453.144	3.68
453.349	37.24
453.553	70.8
453.757	10.74
453.961	-28.11
454.166	23.11
454.37	-1.62
454.574	3.68
454.778	83.16
454.982	102.59
455.186	19.58
455.39	28.41
455.595	30.17
455.799	-3.39
456.003	86.69
456.207	56.67
456.411	53.13
456.615	26.64
456.819	26.64
457.023	100.82
457.227	113.18
457.431	44.3
457.635	60.2
457.839	53.13
458.043	61.96
458.246	0.15
458.45	72.56
458.654	-19.28
458.858	100.82
459.062	166.17
459.266	39
459.47	150.27
459.673	-40.48
459.877	40.77
460.081	26.64
460.285	30.17
460.488	-5.15
460.692	44.3
460.896	-21.05
461.1	-24.58
461.303	26.64
461.507	83.16
461.711	61.96
461.914	46.07
462.118	97.29
462.321	53.13
462.525	152.04
462.729	67.26
462.932	19.58
463.136	102.59
463.339	79.63
463.543	69.03
463.746	54.9
463.95	63.73
464.153	12.51
464.357	114.95
464.56	31.94
464.764	99.05
464.967	31.94
465.17	74.33
465.374	23.11
465.577	47.83
465.78	-10.45
465.984	12.51
466.187	1.91
466.39	79.63
466.594	-56.37
466.797	136.14
467	21.34
467.203	65.5
467.407	8.98
467.61	56.67
467.813	69.03
468.016	77.86
468.219	79.63
468.423	93.76
468.626	70.8
468.829	3.68
469.032	-10.45
469.235	26.64
469.438	76.09
469.641	113.18
469.844	16.04
470.047	58.43
470.25	21.34
470.453	3.68
470.656	-45.77
470.859	125.55
471.062	33.71
471.265	84.92
471.468	58.43
471.671	122.02
471.874	99.05
472.077	63.73
472.28	67.26
472.483	8.98
472.685	51.37
472.888	-24.58
473.091	91.99
473.294	97.29
473.497	61.96
473.699	-8.68
473.902	107.89
474.105	-45.77
474.308	-10.45
474.51	17.81
474.713	77.86
474.916	104.35
475.118	33.71
475.321	-1.62
475.524	23.11
475.726	109.65
475.929	31.94
476.131	-66.97
476.334	-70.5
476.536	-12.22
476.739	-29.88
476.942	8.98
477.144	107.89
477.347	219.16
477.549	37.24
477.751	116.72
477.954	37.24
478.156	26.64
478.359	46.07
478.561	44.3
478.764	1.91
478.966	189.13
479.168	109.65
479.371	79.63
479.573	44.3
479.775	76.09
479.978	-38.71
480.18	129.08
480.382	58.43
480.584	12.51
480.787	88.46
480.989	12.51
481.191	1.91
481.393	-19.28
481.595	77.86
481.797	40.77
482	56.67
482.202	76.09
482.404	100.82
482.606	60.2
482.808	56.67
483.01	91.99
483.212	95.52
483.414	178.53
483.616	125.55
483.818	169.7
484.02	95.52
484.222	235.05
484.424	316.3
484.626	551.2
484.828	2370.39
485.03	5533.66
485.232	6999.61
485.434	6510.38
485.636	6065.29
485.837	5113.31
486.039	4597.58
486.241	3882.26
486.443	3082.17
486.645	2308.58
486.847	1882.92
487.048	1508.49
487.25	1135.82
487.452	828.5
487.653	522.94
487.855	305.7
488.057	224.46
488.259	194.43
488.46	83.16
488.662	144.98
488.863	104.35
489.065	95.52
489.267	76.09
489.468	123.78
489.67	111.42
489.871	49.6
490.073	83.16
490.274	169.7
490.476	65.5
490.677	134.38
490.879	173.24
491.08	120.25
491.282	91.99
491.483	132.61
491.685	70.8
491.886	160.87
492.087	159.11
492.289	88.46
492.49	95.52
492.691	116.72
492.893	152.04
493.094	107.89
493.295	86.69
493.497	143.21
493.698	93.76
493.899	72.56
494.1	86.69
494.302	182.07
494.503	23.11
494.704	153.81
494.905	72.56
495.106	139.68
495.307	-24.58
495.509	122.02
495.71	0.15
495.911	51.37
496.112	21.34
496.313	125.55
496.514	107.89
496.715	123.78
496.916	136.14
497.117	91.99
497.318	106.12
497.519	40.77
497.72	40.77
497.921	90.22
498.122	-21.05
498.323	127.31
498.524	28.41
498.724	102.59
498.925	63.73
499.126	95.52
499.327	-38.71
499.528	88.46
499.729	65.5
499.929	49.6
500.13	5.45
500.331	146.74
500.532	136.14
500.732	61.96
500.933	91.99
501.134	95.52
501.334	39
501.535	58.43
501.736	-17.51
501.936	-45.77
502.137	40.77
502.338	111.42
502.538	132.61
502.739	97.29
502.939	-1.62
503.14	39
503.34	77.86
503.541	88.46
503.741	77.86
503.942	-81.1
504.142	76.09
504.343	31.94
504.543	30.17
504.744	46.07
504.944	-5.15
505.144	91.99
505.345	47.83
505.545	76.09
505.745	-40.48
505.946	30.17
506.146	0.15
506.346	28.41
506.547	-38.71
506.747	58.43
506.947	-54.61
507.147	63.73
507.347	70.8
507.548	65.5
507.748	19.58
507.948	30.17
508.148	24.87
508.348	39
508.548	37.24
508.749	53.13
508.949	61.96
509.149	8.98
509.349	-36.94
509.549	-12.22
509.749	122.02
509.949	60.2
510.149	37.24
510.349	81.39
510.549	90.22
510.749	65.5
510.949	97.29
511.149	30.17
511.349	8.98
511.548	39
511.748	16.04
511.948	28.41
512.148	5.45
512.348	-5.15
512.548	288.04
512.747	65.5
512.947	-13.98
513.147	28.41
513.347	-5.15
513.546	70.8
513.746	72.56
513.946	81.39
514.146	7.21
514.345	37.24
514.545	63.73
514.745	111.42
514.944	-61.67
515.144	-13.98
515.343	37.24
515.543	3.68
515.743	28.41
515.942	1.91
516.142	21.34
516.341	79.63
516.541	-68.73
516.74	-6.92
516.94	-1.62
517.139	10.74
517.338	65.5
517.538	-51.07
517.737	28.41
517.937	56.67
518.136	1.91
518.335	61.96
518.535	56.67
518.734	77.86
518.933	24.87
519.133	47.83
519.332	127.31
519.531	-35.18
519.731	-31.64
519.93	47.83
520.129	14.28
520.328	77.86
520.527	74.33
520.727	72.56
520.926	-42.24
521.125	-6.92
521.324	39
521.523	61.96
521.722	86.69
521.921	28.41
522.12	39
522.319	23.11
522.518	60.2
522.717	-51.07
522.916	-13.98
523.115	86.69
523.314	-5.15
523.513	5.45
523.712	7.21
523.911	10.74
524.11	8.98
524.309	118.48
524.508	7.21
524.707	-17.51
524.906	79.63
525.104	51.37
525.303	0.15
525.502	95.52
525.701	118.48
525.9	125.55
526.098	107.89
526.297	39
526.496	51.37
526.695	42.54
526.893	3.68
527.092	51.37
527.291	65.5
527.489	118.48
527.688	102.59
527.886	5.45
528.085	-19.28
528.284	-58.14
528.482	74.33
528.681	83.16
528.879	-10.45
529.078	104.35
529.276	-102.29
529.475	-68.73
529.673	-59.9
529.872	54.9
530.07	81.39
530.269	-15.75
530.467	26.64
530.665	30.17
530.864	-3.39
531.062	8.98
531.261	56.67
531.459	49.6
531.657	23.11
531.855	30.17
532.054	40.77
532.252	53.13
532.45	-17.51
532.649	16.04
532.847	16.04
533.045	3.68
533.243	-26.35
533.441	-26.35
533.639	23.11
533.838	26.64
534.036	1.91
534.234	-33.41
534.432	-51.07
534.63	37.24
534.828	28.41
535.026	47.83
535.224	72.56
535.422	-17.51
535.62	44.3
535.818	102.59
536.016	91.99
536.214	-33.41
536.412	26.64
536.61	47.83
536.808	26.64
537.006	-17.51
537.204	97.29
537.401	-6.92
537.599	7.21
537.797	0.15
537.995	12.51
538.193	53.13
538.391	-6.92
538.588	35.47
538.786	-49.31
538.984	28.41
539.182	72.56
539.379	169.7
539.577	162.64
539.775	88.46
539.972	46.07
540.17	97.29
540.368	116.72
540.565	233.29
540.763	256.25
540.96	210.33
541.158	166.17
541.355	284.51
541.553	282.74
541.75	358.69
541.948	286.27
542.145	309.23
542.343	344.56
542.54	328.66
542.738	254.48
542.935	408.14
543.133	385.18
543.33	431.1
543.527	284.51
543.725	339.26
543.922	360.45
544.119	344.56
544.317	300.4
544.514	288.04
544.711	282.74
544.908	392.24
545.106	328.66
545.303	390.48
545.5	328.66
545.697	360.45
545.895	351.62
546.092	355.15
546.289	266.84
546.486	231.52
546.683	325.13
546.88	212.09
547.077	153.81
547.274	148.51
547.471	84.92
547.668	141.44
547.865	102.59
548.063	229.75
548.259	21.34
548.456	144.98
548.653	67.26
548.85	83.16
549.047	97.29
549.244	106.12
549.441	100.82
549.638	72.56
549.835	91.99
550.032	10.74
550.229	31.94
550.425	111.42
550.622	104.35
550.819	35.47
551.016	-19.28
551.212	54.9
551.409	70.8
551.606	56.67
551.803	35.47
551.999	76.09
552.196	39
552.393	81.39
552.589	134.38
552.786	84.92
552.983	-13.98
553.179	54.9
553.376	100.82
553.572	67.26
553.769	95.52
553.965	-31.64
554.162	7.21
554.358	-15.75
554.555	-15.75
554.751	76.09
554.948	8.98
555.144	67.26
555.341	46.07
555.537	63.73
555.733	0.15
555.93	-26.35
556.126	40.77
556.322	12.51
556.519	3.68
556.715	60.2
556.911	-1.62
557.108	17.81
557.304	10.74
557.5	132.61
557.696	-26.35
557.893	17.81
558.089	23.11
558.285	104.35
558.481	-38.71
558.677	-26.35
558.873	-26.35
559.07	-22.81
559.266	-31.64
559.462	1.91
559.658	-33.41
559.854	65.5
560.05	10.74
560.246	12.51
560.442	33.71
560.638	5.45
560.834	83.16
561.03	-19.28
561.226	84.92
561.422	-6.92
561.618	63.73
561.813	21.34
562.009	26.64
562.205	14.28
562.401	31.94
562.597	24.87
562.793	63.73
562.988	7.21
563.184	53.13
563.38	1.91
563.576	54.9
563.772	35.47
563.967	-17.51
564.163	-1.62
564.359	-1.62
564.554	46.07
564.75	10.74
564.946	129.08
565.141	-42.24
565.337	81.39
565.532	-8.68
565.728	40.77
565.923	-26.35
566.119	-13.98
566.315	47.83
566.51	35.47
566.706	39
566.901	30.17
567.096	-13.98
567.292	31.94
567.487	35.47
567.683	51.37
567.878	47.83
568.074	-24.58
568.269	26.64
568.464	106.12
568.66	97.29
568.855	127.31
569.05	100.82
569.245	81.39
569.441	60.2
569.636	113.18
569.831	74.33
570.026	61.96
570.222	-58.14
570.417	83.16
570.612	21.34
570.807	1.91
571.002	53.13
571.197	24.87
571.393	35.47
571.588	-56.37
571.783	58.43
571.978	93.76
572.173	58.43
572.368	130.85
572.563	-17.51
572.758	125.55
572.953	93.76
573.148	83.16
573.343	16.04
573.538	107.89
573.733	17.81
573.927	65.5
574.122	49.6
574.317	65.5
574.512	-1.62
574.707	30.17
574.902	33.71
575.096	10.74
575.291	143.21
575.486	24.87
575.681	171.47
575.876	88.46
576.07	90.22
576.265	65.5
576.46	1.91
576.654	69.03
576.849	69.03
577.044	102.59
577.238	61.96
577.433	100.82
577.627	81.39
577.822	106.12
578.017	72.56
578.211	169.7
578.406	72.56
578.6	104.35
578.795	116.72
578.989	58.43
579.184	81.39
579.378	164.4
579.572	162.64
579.767	192.66
579.961	125.55
580.156	90.22
580.35	192.66
580.544	176.77
580.739	111.42
580.933	197.96
581.127	173.24
581.322	132.61
581.516	176.77
581.71	144.98
581.904	176.77
582.099	125.55
582.293	113.18
582.487	229.75
582.681	143.21
582.875	137.91
583.069	144.98
583.263	148.51
583.458	93.76
583.652	118.48
583.846	100.82
584.04	97.29
584.234	152.04
584.428	90.22
584.622	91.99
584.816	118.48
585.01	21.34
585.204	122.02
585.398	137.91
585.592	35.47
585.786	127.31
585.979	162.64
586.173	76.09
586.367	196.2
586.561	116.72
586.755	102.59
586.949	81.39
587.142	166.17
587.336	127.31
587.53	157.34
587.724	125.55
587.917	227.99
588.111	164.4
588.305	173.24
588.499	129.08
588.692	74.33
588.886	153.81
589.08	136.14
589.273	160.87
589.467	23.11
589.66	136.14
589.854	77.86
590.047	65.5
590.241	3.68
590.434	26.64
590.628	54.9
590.821	-10.45
591.015	107.89
591.208	30.17
591.402	91.99
591.595	137.91
591.789	118.48
591.982	100.82
592.175	164.4
592.369	84.92
592.562	65.5
592.755	77.86
592.949	132.61
593.142	157.34
593.335	120.25
593.529	107.89
593.722	81.39
593.915	113.18
594.108	97.29
594.301	-6.92
594.495	203.26
594.688	125.55
594.881	67.26
595.074	56.67
595.267	102.59
595.46	67.26
595.653	81.39
595.846	97.29
596.039	173.24
596.232	-19.28
596.425	132.61
596.618	111.42
596.811	141.44
597.004	44.3
597.197	125.55
597.39	113.18
597.583	176.77
597.776	88.46
597.969	175
598.162	113.18
598.355	74.33
598.548	60.2
598.74	97.29
598.933	-35.18
599.126	102.59
599.319	76.09
599.511	178.53
599.704	155.57
599.897	39
600.09	93.76
600.282	113.18
600.475	-1.62
600.668	7.21
600.86	164.4
601.053	93.76
601.245	81.39
601.438	49.6
601.631	42.54
601.823	16.04
602.016	143.21
602.208	111.42
602.401	162.64
602.593	134.38
602.786	86.69
602.978	139.68
603.171	81.39
603.363	-13.98
603.555	91.99
603.748	100.82
603.94	123.78
604.133	150.27
604.325	169.7
604.517	35.47
604.71	93.76
604.902	86.69
605.094	16.04
605.286	74.33
605.479	123.78
605.671	51.37
605.863	51.37
606.055	111.42
606.247	72.56
606.44	111.42
606.632	37.24
606.824	100.82
607.016	152.04
607.208	54.9
607.4	67.26
607.592	72.56
607.784	47.83
607.976	97.29
608.168	88.46
608.36	150.27
608.552	72.56
608.744	123.78
608.936	49.6
609.128	79.63
609.32	129.08
609.512	118.48
609.704	132.61
609.896	134.38
610.087	231.52
610.279	157.34
610.471	197.96
610.663	328.66
610.855	371.05
611.046	318.06
611.238	270.38
611.43	243.88
611.622	295.1
611.813	266.84
612.005	176.77
612.197	206.79
612.388	217.39
612.58	279.21
612.772	293.34
612.963	197.96
613.155	178.53
613.346	190.9
613.538	153.81
613.729	125.55
613.921	116.72
614.112	129.08
614.304	141.44
614.495	180.3
614.687	134.38
614.878	143.21
615.07	97.29
615.261	176.77
615.452	125.55
615.644	42.54
615.835	132.61
616.026	60.2
616.218	116.72
616.409	116.72
616.6	91.99
616.792	116.72
616.983	33.71
617.174	76.09
617.365	83.16
617.557	39
617.748	26.64
617.939	81.39
618.13	60.2
618.321	24.87
618.512	111.42
618.703	113.18
618.894	122.02
619.086	143.21
619.277	23.11
619.468	28.41
619.659	10.74
619.85	90.22
620.041	47.83
620.232	51.37
620.423	39
620.613	72.56
620.804	24.87
620.995	28.41
621.186	58.43
621.377	118.48
621.568	16.04
621.759	100.82
621.95	35.47
622.14	79.63
622.331	99.05
622.522	44.3
622.713	58.43
622.903	74.33
623.094	118.48
623.285	53.13
623.475	-5.15
623.666	23.11
623.857	69.03
624.047	-24.58
624.238	90.22
624.429	-22.81
624.619	51.37
624.81	39
625	5.45
625.191	-10.45
625.381	0.15
625.572	58.43
625.762	23.11
625.953	35.47
626.143	83.16
626.334	56.67
626.524	30.17
626.715	16.04
626.905	99.05
627.095	53.13
627.286	81.39
627.476	90.22
627.666	111.42
627.857	31.94
628.047	37.24
628.237	26.64
628.427	17.81
628.618	49.6
628.808	-15.75
628.998	-19.28
629.188	28.41
629.378	-8.68
629.569	-10.45
629.759	67.26
629.949	26.64
630.139	21.34
630.329	-17.51
630.519	-12.22
630.709	58.43
630.899	74.33
631.089	-35.18
631.279	47.83
631.469	-29.88
631.659	118.48
631.849	86.69
632.039	0.15
632.229	81.39
632.419	-49.31
632.609	70.8
632.799	51.37
632.988	21.34
633.178	19.58
633.368	99.05
633.558	0.15
633.748	19.58
633.937	39
634.127	35.47
634.317	67.26
634.507	-13.98
634.696	3.68
634.886	23.11
635.076	-35.18
635.265	16.04
635.455	39
635.645	16.04
635.834	47.83
636.024	10.74
636.213	54.9
636.403	79.63
636.592	44.3
636.782	49.6
636.971	83.16
637.161	21.34
637.35	33.71
637.54	-5.15
637.729	91.99
637.919	-49.31
638.108	-31.64
638.297	-21.05
638.487	-5.15
638.676	10.74
638.866	-10.45
639.055	33.71
639.244	42.54
639.433	5.45
639.623	-15.75
639.812	58.43
640.001	24.87
640.19	-21.05
640.38	3.68
640.569	17.81
640.758	-8.68
640.947	19.58
641.136	-24.58
641.325	44.3
641.514	61.96
641.703	-17.51
641.893	28.41
642.082	12.51
642.271	26.64
642.46	7.21
642.649	44.3
642.838	-28.11
643.027	3.68
643.215	53.13
643.404	-10.45
643.593	-12.22
643.782	7.21
643.971	30.17
644.16	-12.22
644.349	-8.68
644.538	47.83
644.726	21.34
644.915	12.51
645.104	58.43
645.293	63.73
645.481	10.74
645.67	-6.92
645.859	-49.31
646.048	79.63
646.236	-91.7
646.425	1.91
646.614	28.41
646.802	39
646.991	54.9
647.179	39
647.368	5.45
647.557	24.87
647.745	40.77
647.934	31.94
648.122	-15.75
648.311	56.67
648.499	40.77
648.687	-3.39
648.876	136.14
649.064	63.73
649.253	3.68
649.441	63.73
649.63	-12.22
649.818	79.63
650.006	84.92
650.195	97.29
650.383	35.47
650.571	107.89
650.759	72.56
650.948	95.52
651.136	17.81
651.324	53.13
651.512	86.69
651.7	65.5
651.889	235.05
652.077	185.6
652.265	185.6
652.453	139.68
652.641	171.47
652.829	114.95
653.017	263.31
653.205	280.97
653.393	240.35
653.581	291.57
653.769	312.77
653.957	309.23
654.145	303.93
654.333	413.44
654.521	489.39
654.709	835.56
654.897	1232.96
655.085	3401.86
655.273	14403.54
655.461	39095.07
655.648	58841.23
655.836	59024.92
656.024	52207.37
656.212	43088.46
656.399	36426.34
656.587	32325.21
656.775	28909.37
656.963	25928.02
657.15	20117.21
657.338	13836.59
657.526	8748.16
657.713	5729.71
657.901	3444.25
658.089	2308.58
658.276	1400.75
658.464	980.39
658.651	738.42
658.839	623.62
659.026	416.97
659.214	394.01
659.401	420.5
659.589	298.64
659.776	150.27
659.964	268.61
660.151	197.96
660.338	153.81
660.526	167.94
660.713	235.05
660.901	70.8
661.088	113.18
661.275	141.44
661.463	102.59
661.65	79.63
661.837	95.52
662.024	162.64
662.212	130.85
662.399	65.5
662.586	86.69
662.773	65.5
662.96	42.54
663.147	97.29
663.335	8.98
663.522	40.77
663.709	-19.28
663.896	60.2
664.083	46.07
664.27	79.63
664.457	-3.39
664.644	40.77
664.831	79.63
665.018	54.9
665.205	97.29
665.392	30.17
665.579	60.2
665.766	-68.73
665.953	10.74
666.139	53.13
666.326	83.16
666.513	26.64
666.7	23.11
666.887	33.71
667.074	23.11
667.26	24.87
667.447	28.41
667.634	61.96
667.821	3.68
668.007	-15.75
668.194	-111.12
668.381	14.28
668.567	-42.24
668.754	23.11
668.94	106.12
669.127	37.24
669.314	42.54
669.5	42.54
669.687	1.91
669.873	3.68
670.06	40.77
670.246	35.47
670.433	46.07
670.619	16.04
670.806	111.42
670.992	-35.18
671.178	-3.39
671.365	97.29
671.551	104.35
671.738	-31.64
671.924	63.73
672.11	40.77
672.297	24.87
672.483	-10.45
672.669	47.83
672.855	56.67
673.042	-77.57
673.228	16.04
673.414	8.98
673.6	-56.37
673.786	14.28
673.973	39
674.159	40.77
674.345	51.37
674.531	70.8
674.717	39
674.903	-8.68
675.089	-38.71
675.275	5.45
675.461	70.8
675.647	33.71
675.833	21.34
676.019	-8.68
676.205	49.6
676.391	21.34
676.577	-10.45
676.763	-56.37
676.949	53.13
677.134	-31.64
677.32	116.72
677.506	8.98
677.692	35.47
677.878	-12.22
678.064	5.45
678.249	111.42
678.435	23.11
678.621	-10.45
678.806	-19.28
678.992	-3.39
679.178	-17.51
679.363	-33.41
679.549	33.71
679.735	-12.22
679.92	-29.88
680.106	40.77
680.291	-1.62
680.477	0.15
680.663	122.02
680.848	-42.24
681.034	-17.51
681.219	0.15
681.404	60.2
681.59	-1.62
681.775	-17.51
681.961	-8.68
682.146	3.68
682.332	-22.81
682.517	-63.44
682.702	65.5
682.888	53.13
683.073	5.45
683.258	120.25
683.443	49.6
683.629	-19.28
683.814	5.45
683.999	-31.64
684.184	-42.24
684.37	-24.58
684.555	61.96
684.74	17.81
684.925	47.83
685.11	-81.1
685.295	58.43
685.48	95.52
685.665	8.98
685.85	24.87
686.035	58.43
686.22	-5.15
686.405	-26.35
686.59	33.71
686.775	-29.88
686.96	-12.22
687.145	19.58
687.33	16.04
687.515	67.26
687.7	-3.39
687.885	-51.07
688.07	-31.64
688.254	1.91
688.439	-5.15
688.624	37.24
688.809	-38.71
688.993	23.11
689.178	-75.8
689.363	-1.62
689.548	-40.48
689.732	-1.62
689.917	26.64
690.102	12.51
690.286	49.6
690.471	-1.62
690.655	-10.45
690.84	46.07
691.025	-6.92
691.209	0.15
691.394	-3.39
691.578	33.71
691.763	37.24
691.947	-17.51
692.132	28.41
692.316	-58.14
692.5	-52.84
692.685	-44.01
692.869	40.77
693.054	-70.5
693.238	-42.24
693.422	8.98
693.607	-35.18
693.791	81.39
693.975	-6.92
694.159	24.87
694.344	26.64
694.528	49.6
694.712	51.37
694.896	17.81
695.081	19.58
695.265	-59.9
695.449	-35.18
695.633	-15.75
695.817	-82.86
696.001	0.15
696.185	-65.2
696.369	-17.51
696.553	0.15
696.737	-8.68
696.921	-42.24
697.105	116.72
697.289	-22.81
697.473	-10.45
697.657	-84.63
697.841	10.74
698.025	-12.22
698.209	-10.45
698.393	-61.67
698.577	21.34
698.76	-86.4
698.944	-19.28
699.128	-44.01
699.312	-86.4
699.496	-38.71
699.679	-49.31
699.863	-44.01
700.047	-13.98
700.23	-63.44
700.414	-44.01
700.598	-42.24
700.781	-6.92
700.965	-52.84
701.149	-3.39
701.332	-6.92
701.516	10.74
701.699	10.74
701.883	37.24
702.066	19.58
702.25	10.74
702.433	19.58
702.617	23.11
702.8	-26.35
702.984	0.15
703.167	83.16
703.35	49.6
703.534	-36.94
703.717	-44.01
703.901	14.28
704.084	102.59
704.267	28.41
704.45	28.41
704.634	56.67
704.817	21.34
705	-12.22
705.183	-31.64
705.367	-49.31
705.55	14.28
705.733	-56.37
705.916	30.17
706.099	-12.22
706.282	35.47
706.465	-45.77
706.649	-3.39
706.832	5.45
707.015	-58.14
707.198	-3.39
707.381	86.69
707.564	12.51
707.747	-77.57
707.93	0.15
708.113	8.98
708.295	26.64
708.478	-70.5
708.661	17.81
708.844	49.6
709.027	-54.61
709.21	-17.51
709.393	42.54
709.575	-5.15
709.758	-31.64
709.941	-26.35
710.124	-5.15
710.306	56.67
710.489	-1.62
710.672	-22.81
710.854	-51.07
711.037	-19.28
711.22	-6.92
711.402	74.33
711.585	7.21
711.768	-59.9
711.95	30.17
712.133	-31.64
712.315	-65.2
712.498	35.47
712.68	12.51
712.863	54.9
713.045	-40.48
713.228	-49.31
713.41	-13.98
713.592	7.21
713.775	56.67
713.957	65.5
714.139	-28.11
714.322	3.68
714.504	-3.39
714.686	-24.58
714.869	12.51
715.051	46.07
715.233	-22.81
715.415	-33.41
715.598	-40.48
715.78	-3.39
715.962	-1.62
716.144	-38.71
716.326	65.5
716.509	-26.35
716.691	16.04
716.873	7.21
717.055	-19.28
717.237	54.9
717.419	-8.68
717.601	16.04
717.783	-6.92
717.965	1.91
718.147	14.28
718.329	-45.77
718.511	-44.01
718.693	10.74
718.875	-33.41
719.056	21.34
719.238	16.04
719.42	-95.23
719.602	19.58
719.784	-12.22
719.966	53.13
720.147	-72.27
720.329	-72.27
720.511	46.07
720.692	5.45
720.874	93.76
721.056	-56.37
721.238	-38.71
721.419	-29.88
721.601	0.15
721.782	-36.94
721.964	10.74
722.146	23.11
722.327	-59.9
722.509	10.74
722.69	-24.58
722.872	-8.68
723.053	61.96
723.235	40.77
723.416	-15.75
723.598	-22.81
723.779	28.41
723.96	-63.44
724.142	56.67
724.323	31.94
724.504	14.28
724.686	42.54
724.867	31.94
725.048	10.74
725.23	23.11
725.411	-3.39
725.592	42.54
725.773	-40.48
725.955	51.37
726.136	23.11
726.317	-104.06
726.498	70.8
726.679	40.77
726.86	-33.41
727.041	-47.54
727.223	44.3
727.404	-21.05
727.585	-49.31
727.766	-22.81
727.947	47.83
728.128	47.83
728.309	-17.51
728.49	14.28
728.671	-6.92
728.851	7.21
729.032	60.2
729.213	37.24
729.394	-35.18
729.575	53.13
729.756	0.15
729.937	26.64
730.117	-47.54
730.298	-13.98
730.479	37.24
730.66	-88.16
730.84	7.21
731.021	30.17
731.202	-59.9
731.382	8.98
731.563	1.91
731.744	3.68
731.924	-1.62
732.105	-15.75
732.286	-61.67
732.466	5.45
732.647	-100.53
732.827	39
733.008	24.87
733.188	-12.22
733.369	-98.76
733.549	7.21
733.73	-33.41
733.91	-79.33
734.09	12.51
734.271	-56.37
734.451	-10.45
734.631	-15.75
734.812	-28.11
734.992	28.41
735.172	35.47
735.353	-75.8
735.533	-49.31
735.713	-21.05
735.893	-17.51
736.074	-31.64
736.254	33.71
736.434	0.15
736.614	14.28
736.794	-22.81
736.974	-68.73
737.154	-38.71
737.335	-59.9
737.515	-3.39
737.695	21.34
737.875	19.58
738.055	-1.62
738.235	-47.54
738.415	-33.41
738.595	-6.92
738.775	-84.63
738.954	31.94
739.134	-44.01
739.314	-89.93
739.494	28.41
739.674	-56.37
739.854	26.64
740.034	-3.39
740.213	-51.07
740.393	-52.84
740.573	24.87
740.753	91.99
740.932	23.11
741.112	-24.58
741.292	-89.93
741.471	26.64
741.651	3.68
741.831	-19.28
742.01	8.98
742.19	37.24
742.37	-31.64
742.549	-58.14
742.729	8.98
742.908	47.83
743.088	-36.94
743.267	44.3
743.447	-31.64
743.626	69.03
743.805	10.74
743.985	-66.97
744.164	-22.81
744.344	16.04
744.523	21.34
744.702	-36.94
744.882	-15.75
745.061	-63.44
745.24	-47.54
745.42	24.87
745.599	-42.24
745.778	-6.92
745.957	10.74
746.137	26.64
746.316	-29.88
746.495	-10.45
746.674	-21.05
746.853	-40.48
747.032	-77.57
747.211	-35.18
747.39	8.98
747.569	-35.18
747.749	19.58
747.928	0.15
748.107	-91.7
748.286	19.58
748.464	24.87
748.643	42.54
748.822	3.68
749.001	-21.05
749.18	10.74
749.359	8.98
749.538	-13.98
749.717	58.43
749.896	-84.63
750.074	-44.01
750.253	125.55
750.432	-70.5
750.611	-79.33
750.789	-24.58
750.968	17.81
751.147	-49.31
751.325	-63.44
751.504	-6.92
751.683	-1.62
751.861	-82.86
752.04	35.47
752.219	-70.5
752.397	46.07
752.576	-28.11
752.754	8.98
752.933	-31.64
753.111	46.07
753.29	-15.75
753.468	49.6
753.647	-36.94
753.825	16.04
754.003	33.71
754.182	-24.58
754.36	-13.98
754.539	49.6
754.717	-33.41
754.895	-45.77
755.074	-22.81
755.252	-45.77
755.43	31.94
755.608	19.58
755.787	-54.61
755.965	-6.92
756.143	-72.27
756.321	-44.01
756.499	28.41
756.677	-33.41
756.856	28.41
757.034	-17.51
757.212	17.81
757.39	-17.51
757.568	-12.22
757.746	67.26
757.924	19.58
758.102	8.98
758.28	72.56
758.458	-72.27
758.636	-36.94
758.814	-31.64
758.992	90.22
759.169	-44.01
759.347	-77.57
759.525	14.28
759.703	26.64
759.881	-31.64
760.059	28.41
760.236	-31.64
760.414	42.54
760.592	-31.64
760.77	12.51
760.947	39
761.125	-8.68
761.303	-38.71
761.48	-100.53
761.658	-56.37
761.835	58.43
762.013	-6.92
762.191	54.9
762.368	-35.18
762.546	3.68
762.723	-58.14
762.901	7.21
763.078	21.34
763.256	17.81
763.433	-36.94
763.611	56.67
763.788	-59.9
763.965	-28.11
764.143	-61.67
764.32	-24.58
764.497	31.94
764.675	-47.54
764.852	17.81
765.029	51.37
765.207	-33.41
765.384	-5.15
765.561	40.77
765.738	-58.14
765.915	-51.07
766.093	5.45
766.27	-40.48
766.447	46.07
766.624	28.41
766.801	-49.31
766.978	-52.84
767.155	16.04
767.332	-72.27
767.509	14.28
767.686	7.21
767.863	-1.62
768.04	100.82
768.217	21.34
768.394	3.68
768.571	-6.92
768.748	-84.63
768.925	-8.68
769.102	-42.24
769.279	-22.81
769.455	-88.16
769.632	3.68
769.809	-17.51
769.986	-13.98
770.163	-17.51
770.339	-75.8
770.516	-44.01
770.693	-26.35
770.869	28.41
771.046	65.5
771.223	76.09
771.399	-24.58
771.576	-33.41
771.752	-84.63
771.929	-33.41
772.106	21.34
772.282	-75.8
772.459	-47.54
772.635	0.15
772.812	-33.41
772.988	49.6
773.165	40.77
773.341	-26.35
773.517	10.74
773.694	16.04
773.87	-3.39
774.046	-49.31
774.223	47.83
774.399	-58.14
774.575	26.64
774.752	51.37
774.928	31.94
775.104	-52.84
775.28	-59.9
775.457	7.21
775.633	132.61
775.809	266.84
775.985	482.32
776.161	658.94
776.337	586.53
776.513	494.68
776.69	388.71
776.866	369.28
777.042	273.91
777.218	261.55
777.394	187.36
777.57	194.43
777.746	160.87
777.922	166.17
778.097	258.01
778.273	93.76
778.449	175
778.625	137.91
778.801	114.95
778.977	122.02
779.153	40.77
779.328	17.81
779.504	-26.35
779.68	-26.35
779.856	-5.15
780.031	-10.45
780.207	61.96
780.383	-40.48
780.559	-111.12
780.734	-104.06
780.91	19.58
781.085	56.67
781.261	-100.53
781.437	-68.73
781.612	33.71
781.788	77.86
781.963	0.15
782.139	10.74
782.314	-26.35
782.49	-84.63
782.665	-13.98
782.841	-66.97
783.016	16.04
783.191	-15.75
783.367	-49.31
783.542	-45.77
783.717	-65.2
783.893	54.9
784.068	-45.77
784.243	0.15
784.419	69.03
784.594	-59.9
784.769	-17.51
784.944	37.24
785.12	-74.03
785.295	10.74
785.47	-22.81
785.645	-51.07
785.82	23.11
785.995	1.91
786.17	-5.15
786.345	28.41
786.52	-59.9
786.695	19.58
786.87	16.04
787.045	12.51
787.22	60.2
787.395	-15.75
787.57	7.21
787.745	-36.94
787.92	14.28
788.095	5.45
788.27	91.99
788.445	-70.5
788.619	-116.42
788.794	24.87
788.969	-56.37
789.144	-56.37
789.319	-10.45
789.493	16.04
789.668	-36.94
789.843	-24.58
790.017	102.59
790.192	-26.35
790.367	12.51
790.541	-66.97
790.716	44.3
790.89	30.17
791.065	16.04
791.24	-45.77
791.414	12.51
791.589	-12.22
791.763	-51.07
791.938	83.16
792.112	26.64
792.286	-28.11
792.461	-33.41
792.635	46.07
792.81	-6.92
792.984	-38.71
793.158	56.67
793.333	44.3
793.507	-1.62
793.681	-49.31
793.856	-72.27
794.03	31.94
794.204	-12.22
794.378	-35.18
794.552	-6.92
794.727	-3.39
794.901	-8.68
795.075	-65.2
795.249	74.33
795.423	21.34
795.597	65.5
795.771	28.41
795.945	60.2
796.119	-22.81
796.293	-17.51
796.467	-5.15
796.641	14.28
796.815	-51.07
796.989	24.87
797.163	-40.48
797.337	-40.48
797.511	-42.24
797.685	24.87
797.859	-40.48
798.032	16.04
798.206	-36.94
798.38	-81.1
798.554	-22.81
798.727	-15.75
798.901	-72.27
799.075	-28.11
799.249	26.64
799.422	31.94
799.596	17.81
799.77	-81.1
799.943	10.74
800.117	-38.71
800.29	61.96
800.464	83.16
800.637	-40.48
800.811	-1.62
800.985	-5.15
801.158	-17.51
801.331	-38.71
801.505	-51.07
801.678	-70.5
801.852	37.24
802.025	58.43
802.199	-1.62
802.372	-95.23
802.545	-112.89
802.719	1.91
802.892	-8.68
803.065	-49.31
803.238	-40.48
803.412	-74.03
803.585	-5.15
803.758	-42.24
803.931	-63.44
804.104	8.98
804.278	-68.73
804.451	69.03
804.624	-13.98
804.797	-74.03
804.97	-1.62
805.143	-61.67
805.316	-38.71
805.489	-52.84
805.662	-36.94
805.835	-59.9
806.008	-36.94
806.181	26.64
806.354	-68.73
806.527	-74.03
806.7	86.69
806.873	28.41
807.045	14.28
807.218	-5.15
807.391	-54.61
807.564	-96.99
807.737	39
807.909	0.15
808.082	30.17
808.255	-51.07
808.428	8.98
808.6	5.45
808.773	28.41
808.946	-33.41
809.118	7.21
809.291	37.24
809.463	3.68
809.636	63.73
809.809	23.11
809.981	28.41
810.154	-15.75
810.326	-5.15
810.499	-17.51
810.671	-82.86
810.843	-52.84
811.016	-63.44
811.188	8.98
811.361	-89.93
811.533	-36.94
811.705	-26.35
811.878	-13.98
812.05	44.3
812.222	8.98
812.395	-59.9
812.567	-22.81
812.739	7.21
812.911	54.9
813.083	-47.54
813.256	-58.14
813.428	-56.37
813.6	-42.24
813.772	-24.58
813.944	-8.68
814.116	-84.63
814.288	3.68
814.46	-24.58
814.632	-44.01
814.804	-74.03
814.976	-84.63
815.148	-1.62
815.32	5.45
815.492	14.28
815.664	-47.54
815.836	-3.39
816.008	14.28
816.18	-24.58
816.352	17.81
816.523	8.98
816.695	16.04
816.867	-10.45
817.039	5.45
817.21	26.64
817.382	8.98
817.554	-195.9
817.726	12.51
817.897	-70.5
818.069	28.41
818.241	-82.86
818.412	-79.33
818.584	7.21
818.755	-3.39
818.927	35.47
819.098	8.98
819.27	120.25
819.441	39
819.613	-47.54
819.784	7.21
819.956	-72.27
820.127	-56.37
820.299	-40.48
820.47	90.22
820.641	-6.92
820.813	-59.9
820.984	-38.71
821.155	12.51
821.327	-52.84
821.498	63.73
821.669	37.24
821.84	-26.35
822.012	24.87
822.183	40.77
822.354	63.73
822.525	-8.68
822.696	-1.62
822.867	-26.35
823.039	-38.71
823.21	-38.71
823.381	-6.92
823.552	-56.37
823.723	-96.99
823.894	-33.41
824.065	-139.38
824.236	7.21
824.407	-49.31
824.578	-65.2
824.749	1.91
824.919	-8.68
825.09	-13.98
825.261	-45.77
825.432	-88.16
825.603	-51.07
825.774	24.87
825.944	60.2
826.115	-26.35
826.286	-26.35
826.457	-77.57
826.627	-54.61
826.798	-47.54
826.969	58.43
827.139	58.43
827.31	-59.9
827.481	-29.88
827.651	-33.41
827.822	-19.28
827.992	-47.54
828.163	136.14
828.333	-3.39
828.504	23.11
828.674	-36.94
828.845	-58.14
829.015	-58.14
829.186	-75.8
829.356	-51.07
829.527	-13.98
829.697	-13.98
829.867	-31.64
830.038	-1.62
830.208	-3.39
830.378	-49.31
830.548	-42.24
830.719	-54.61
830.889	0.15
831.059	-1.62
831.229	-66.97
831.399	7.21
831.57	-51.07
831.74	39
831.91	-98.76
832.08	47.83
832.25	56.67
832.42	-31.64
832.59	-89.93
832.76	-52.84
832.93	10.74
833.1	70.8
833.27	-29.88
833.44	-26.35
833.61	-19.28
833.78	-58.14
833.95	-95.23
834.12	-38.71
834.29	-8.68
834.459	40.77
834.629	-49.31
834.799	-15.75
834.969	19.58
835.139	56.67
835.308	-56.37
835.478	-42.24
835.648	14.28
835.817	-42.24
835.987	-17.51
836.157	-31.64
836.326	-38.71
836.496	67.26
836.665	-28.11
836.835	-68.73
837.005	-89.93
837.174	-8.68
837.344	1.91
837.513	21.34
837.683	5.45
837.852	54.9
838.021	-6.92
838.191	1.91
838.36	-88.16
838.53	35.47
838.699	-42.24
838.868	42.54
839.038	-58.14
839.207	-58.14
839.376	21.34
839.546	-77.57
839.715	-74.03
839.884	-17.51
840.053	60.2
840.222	-70.5
840.392	-3.39
840.561	-79.33
840.73	12.51
840.899	-86.4
841.068	-13.98
841.237	16.04
841.406	35.47
841.575	60.2
841.744	-70.5
841.913	24.87
842.082	93.76
842.251	-91.7
842.42	-5.15
842.589	-3.39
842.758	19.58
842.927	-8.68
843.096	-70.5
843.264	-22.81
843.433	44.3
843.602	-74.03
843.771	46.07
843.94	88.46
844.108	106.12
844.277	79.63
844.446	40.77
844.614	-12.22
844.783	132.61
844.952	-10.45
845.12	-1.62
845.289	24.87
845.458	-5.15
845.626	10.74
845.795	132.61
845.963	-6.92
846.132	26.64
846.3	5.45
846.469	47.83
846.637	24.87
846.806	-10.45
846.974	0.15
847.142	-3.39
847.311	-31.64
847.479	-5.15
847.648	5.45
847.816	-59.9
847.984	12.51
848.152	-54.61
848.321	44.3
848.489	74.33
848.657	58.43
848.825	17.81
848.994	58.43
849.162	-44.01
849.33	-12.22
849.498	-40.48
849.666	16.04
849.834	-5.15
850.002	-35.18
850.17	-36.94
850.338	-61.67
850.506	-68.73
850.674	-22.81
850.842	-84.63
851.01	-28.11
851.178	-5.15
851.346	-40.48
851.514	-13.98
851.682	17.81
851.85	24.87
852.018	-22.81
852.186	-5.15
852.353	-63.44
852.521	-36.94
852.689	-58.14
852.857	-31.64
853.024	33.71
853.192	-105.83
853.36	-31.64
853.527	-84.63
853.695	-47.54
853.863	-24.58
854.03	-6.92
854.198	-5.15
854.366	-6.92
854.533	-75.8
854.701	8.98
854.868	-45.77
855.036	-68.73
855.203	-49.31
855.371	-1.62
855.538	5.45
855.705	-15.75
855.873	-8.68
856.04	39
856.208	-21.05
856.375	-24.58
856.542	-109.36
856.71	-35.18
856.877	-36.94
857.044	-6.92
857.211	54.9
857.379	-26.35
857.546	-35.18
857.713	7.21
857.88	-6.92
858.047	74.33
858.214	23.11
858.381	-28.11
858.549	-45.77
858.716	7.21
858.883	-5.15
859.05	-33.41
859.217	31.94
859.384	5.45
859.551	113.18
859.718	8.98
859.885	-29.88
860.052	-12.22
860.218	-56.37
860.385	14.28
860.552	-26.35
860.719	-24.58
860.886	47.83
861.053	-31.64
861.219	0.15
861.386	-29.88
861.553	-75.8
861.72	-3.39
861.886	-12.22
862.053	-49.31
862.22	-49.31
862.386	-47.54
862.553	-82.86
862.72	-36.94
862.886	-59.9
863.053	10.74
863.219	-5.15
863.386	-79.33
863.552	-77.57
863.719	51.37
863.885	-19.28
864.052	-22.81
864.218	-28.11
864.385	-17.51
864.551	-8.68
864.717	54.9
864.884	-3.39
865.05	49.6
865.216	-15.75
865.383	31.94
865.549	24.87
865.715	-61.67
865.881	-81.1
866.048	-28.11
866.214	-40.48
866.38	-44.01
866.546	-8.68
866.712	26.64
866.878	-45.77
867.045	-5.15
867.211	-38.71
867.377	21.34
867.543	-24.58
867.709	-51.07
867.875	-33.41
868.041	-29.88
868.207	-13.98
868.373	12.51
868.539	-84.63
868.705	40.77
868.87	-70.5
869.036	-21.05
869.202	31.94
869.368	-45.77
869.534	-56.37
869.7	-74.03
869.865	35.47
870.031	8.98
870.197	-51.07
870.363	17.81
870.528	16.04
870.694	-38.71
870.86	8.98
871.025	-3.39
871.191	-121.72
871.356	30.17
871.522	-26.35
871.688	8.98
871.853	-65.2
872.019	39
872.184	-65.2
872.35	-36.94
872.515	5.45
872.68	-42.24
872.846	-54.61
873.011	-24.58
873.177	-42.24
873.342	0.15
873.507	-24.58
873.673	-19.28
873.838	-5.15
874.003	46.07
874.169	14.28
874.334	44.3
874.499	-65.2
874.664	-15.75
874.829	-26.35
874.995	-6.92
875.16	-15.75
875.325	10.74
875.49	-24.58
875.655	-1.62
875.82	95.52
875.985	-56.37
876.15	-19.28
876.315	-36.94
876.48	-38.71
876.645	-54.61
876.81	-28.11
876.975	44.3
877.14	7.21
877.305	-5.15
877.47	-40.48
877.635	-35.18
877.799	16.04
877.964	-49.31
878.129	-12.22
878.294	47.83
878.459	42.54
878.623	-29.88
878.788	56.67
878.953	-51.07
879.117	31.94
879.282	63.73
879.447	14.28
879.611	10.74
879.776	-38.71
879.941	-68.73
880.105	-24.58
880.27	91.99
880.434	-100.53
880.599	-58.14
880.763	-12.22
880.928	79.63
881.092	-13.98
881.257	21.34
881.421	14.28
881.585	8.98
881.75	-47.54
881.914	-24.58
882.078	14.28
882.243	17.81
882.407	-22.81
882.571	-72.27
882.735	16.04
882.9	42.54
883.064	-100.53
883.228	-49.31
883.392	-38.71
883.556	-19.28
883.721	14.28
883.885	95.52
884.049	-31.64
884.213	1.91
884.377	-68.73
884.541	-66.97
884.705	-1.62
884.869	16.04
885.033	23.11
885.197	-47.54
885.361	65.5
885.525	102.59
885.689	-61.67
885.852	-72.27
886.016	-12.22
886.18	-58.14
886.344	-107.59
886.508	-1.62
886.672	63.73
886.835	-96.99
886.999	-10.45
887.163	-17.51
887.326	14.28
887.49	77.86
887.654	-100.53
887.817	1.91
887.981	-44.01
888.145	14.28
888.308	-10.45
888.472	-28.11
888.635	-36.94
888.799	3.68
888.962	-56.37
889.126	-29.88
889.289	-21.05
889.453	-59.9
889.616	12.51
889.78	60.2
889.943	-42.24
890.106	31.94
890.27	-121.72
890.433	-45.77
890.596	-54.61
890.76	-81.1
890.923	-33.41
891.086	-52.84
891.249	-19.28
891.413	51.37
891.576	-93.46
891.739	-8.68
891.902	-58.14
892.065	33.71
892.228	-8.68
892.391	-112.89
892.554	-6.92
892.717	28.41
892.88	-52.84
893.044	-66.97
893.206	7.21
893.369	-10.45
893.532	-31.64
893.695	23.11
893.858	8.98
894.021	-52.84
894.184	-15.75
894.347	-61.67
894.51	-51.07
894.673	-44.01
894.835	-22.81
894.998	-28.11
895.161	-19.28
895.324	3.68
895.486	-17.51
895.649	-6.92
895.812	-6.92
895.974	19.58
896.137	-8.68
896.3	-86.4
896.462	31.94
896.625	-38.71
896.787	-77.57
896.95	-56.37
897.112	-28.11
897.275	-5.15
897.437	26.64
897.6	-28.11
897.762	-66.97
897.925	21.34
898.087	-61.67
898.249	-6.92
898.412	-31.64
898.574	-44.01
898.736	-81.1
898.899	-33.41
899.061	-81.1
899.223	16.04
899.385	-24.58
899.548	-47.54
899.71	-107.59
899.872	-22.81
900.034	-82.86
900.196	-33.41
900.358	12.51
900.521	67.26
900.683	-59.9
900.845	-40.48
901.007	-22.81
901.169	7.21
901.331	7.21
901.493	7.21
